       Field	   Intensity
        [mT]	         [ ]
       0.000	 -6.1339e+02
       0.250	  2.2431e+02
       0.500	  1.6151e+03
       0.750	  2.8261e+03
       1.000	  3.2057e+03
       1.250	  3.3749e+03
       1.500	  3.6123e+03
       1.750	  3.3703e+03
       2.000	  3.1485e+03
       2.250	  3.4968e+03
       2.500	  3.4823e+03
       2.750	  2.6819e+03
       3.000	  1.8896e+03
       3.250	  1.4188e+03
       3.500	  1.1433e+03
       3.750	  1.4053e+03
       4.000	  1.9103e+03
       4.250	  1.7246e+03
       4.500	  1.2231e+03
       4.750	  1.0139e+03
       5.000	  1.2250e+03
       5.250	  2.4797e+03
       5.500	  4.0638e+03
       5.750	  4.3133e+03
       6.000	  3.3943e+03
       6.250	  2.4330e+03
       6.500	  1.7382e+03
       6.750	  1.1746e+03
       7.000	  3.8439e+02
       7.250	 -2.4661e+02
       7.500	  7.8296e+02
       7.750	  2.2237e+03
       8.000	  1.9910e+03
       8.250	  1.9685e+03
       8.500	  2.8831e+03
       8.750	  2.9556e+03
       9.000	  2.5009e+03
       9.250	  2.1775e+03
       9.500	  1.9683e+03
       9.750	  2.1716e+03
      10.000	  2.3688e+03
      10.250	  2.2466e+03
      10.500	  2.1066e+03
      10.750	  2.1888e+03
      11.000	  3.1068e+03
      11.250	  4.9151e+03
      11.500	  5.9507e+03
      11.750	  5.1388e+03
      12.000	  3.9778e+03
      12.250	  4.0136e+03
      12.500	  4.2578e+03
      12.750	  3.2856e+03
      13.000	  2.1293e+03
      13.250	  2.3616e+03
      13.500	  3.4075e+03
      13.750	  3.5570e+03
      14.000	  2.1846e+03
      14.250	  1.0571e+03
      14.500	  2.0161e+03
      14.750	  3.8753e+03
      15.000	  4.7385e+03
      15.250	  4.6574e+03
      15.500	  4.4418e+03
      15.750	  4.6401e+03
      16.000	  5.0139e+03
      16.250	  4.5173e+03
      16.500	  2.6663e+03
      16.750	  4.7783e+02
      17.000	  7.9080e+01
      17.250	  2.0178e+03
      17.500	  3.7107e+03
      17.750	  3.4491e+03
      18.000	  2.7898e+03
      18.250	  2.9089e+03
      18.500	  2.9841e+03
      18.750	  2.7571e+03
      19.000	  3.0660e+03
      19.250	  3.8115e+03
      19.500	  4.3514e+03
      19.750	  4.7082e+03
      20.000	  4.5185e+03
      20.250	  3.7889e+03
      20.500	  3.6245e+03
      20.750	  4.1270e+03
      21.000	  4.1992e+03
      21.250	  3.5875e+03
      21.500	  3.3042e+03
      21.750	  3.8126e+03
      22.000	  4.4265e+03
      22.250	  4.6644e+03
      22.500	  4.6741e+03
      22.750	  4.6406e+03
      23.000	  4.7261e+03
      23.250	  4.8796e+03
      23.500	  4.1031e+03
      23.750	  2.3183e+03
      24.000	  1.3028e+03
      24.250	  1.7068e+03
      24.500	  2.7281e+03
      24.750	  3.5990e+03
      25.000	  3.9413e+03
      25.250	  4.0812e+03
      25.500	  4.2665e+03
      25.750	  4.4843e+03
      26.000	  5.0486e+03
      26.250	  5.8698e+03
      26.500	  6.0755e+03
      26.750	  4.8860e+03
      27.000	  2.7170e+03
      27.250	  1.2678e+03
      27.500	  1.3603e+03
      27.750	  2.1701e+03
      28.000	  3.1733e+03
      28.250	  4.3976e+03
      28.500	  5.3141e+03
      28.750	  4.9462e+03
      29.000	  3.5806e+03
      29.250	  2.9026e+03
      29.500	  3.5631e+03
      29.750	  4.6838e+03
      30.000	  4.9931e+03
      30.250	  4.2313e+03
      30.500	  3.9296e+03
      30.750	  4.7920e+03
      31.000	  5.1461e+03
      31.250	  4.2845e+03
      31.500	  3.8831e+03
      31.750	  4.1575e+03
      32.000	  3.5618e+03
      32.250	  3.1026e+03
      32.500	  4.3838e+03
      32.750	  5.4533e+03
      33.000	  4.2865e+03
      33.250	  2.2365e+03
      33.500	  1.3192e+03
      33.750	  1.8553e+03
      34.000	  3.1395e+03
      34.250	  3.7291e+03
      34.500	  2.8712e+03
      34.750	  2.4126e+03
      35.000	  3.5875e+03
      35.250	  4.5914e+03
      35.500	  4.3853e+03
      35.750	  4.0998e+03
      36.000	  4.3112e+03
      36.250	  4.2438e+03
      36.500	  3.3503e+03
      36.750	  2.6496e+03
      37.000	  2.7795e+03
      37.250	  2.5030e+03
      37.500	  1.7437e+03
      37.750	  2.1818e+03
      38.000	  3.6588e+03
      38.250	  4.4859e+03
      38.500	  4.4620e+03
      38.750	  4.1315e+03
      39.000	  3.5918e+03
      39.250	  3.4949e+03
      39.500	  4.1895e+03
      39.750	  4.5496e+03
      40.000	  4.1662e+03
      40.250	  3.9693e+03
      40.500	  4.1455e+03
      40.750	  4.4855e+03
      41.000	  4.7322e+03
      41.250	  4.3555e+03
      41.500	  3.2269e+03
      41.750	  2.1457e+03
      42.000	  2.7102e+03
      42.250	  4.1887e+03
      42.500	  4.3946e+03
      42.750	  3.8170e+03
      43.000	  3.6750e+03
      43.250	  4.4638e+03
      43.500	  5.5428e+03
      43.750	  5.1953e+03
      44.000	  4.1506e+03
      44.250	  4.0962e+03
      44.500	  4.6029e+03
      44.750	  5.2819e+03
      45.000	  6.1980e+03
      45.250	  6.1676e+03
      45.500	  4.5833e+03
      45.750	  2.9481e+03
      46.000	  2.1156e+03
      46.250	  1.6397e+03
      46.500	  2.0703e+03
      46.750	  3.5508e+03
      47.000	  4.5355e+03
      47.250	  4.2858e+03
      47.500	  3.8363e+03
      47.750	  3.9291e+03
      48.000	  3.8942e+03
      48.250	  3.7415e+03
      48.500	  4.5756e+03
      48.750	  5.7400e+03
      49.000	  5.7352e+03
      49.250	  5.1692e+03
      49.500	  5.1766e+03
      49.750	  5.1789e+03
      50.000	  4.4211e+03
      50.250	  3.7303e+03
      50.500	  4.1415e+03
      50.750	  5.0100e+03
      51.000	  5.2403e+03
      51.250	  4.7413e+03
      51.500	  3.6837e+03
      51.750	  2.4503e+03
      52.000	  1.7210e+03
      52.250	  1.7200e+03
      52.500	  1.9896e+03
      52.750	  2.0784e+03
      53.000	  2.5582e+03
      53.250	  4.0960e+03
      53.500	  5.6597e+03
      53.750	  5.9020e+03
      54.000	  5.1555e+03
      54.250	  4.2345e+03
      54.500	  3.4580e+03
      54.750	  3.0016e+03
      55.000	  2.6476e+03
      55.250	  2.3344e+03
      55.500	  2.5606e+03
      55.750	  3.1475e+03
      56.000	  3.2202e+03
      56.250	  2.9263e+03
      56.500	  3.0481e+03
      56.750	  3.0873e+03
      57.000	  2.2314e+03
      57.250	  1.1390e+03
      57.500	  1.1067e+03
      57.750	  2.4365e+03
      58.000	  3.8481e+03
      58.250	  3.9838e+03
      58.500	  3.3795e+03
      58.750	  3.2626e+03
      59.000	  3.2899e+03
      59.250	  2.7012e+03
      59.500	  1.9452e+03
      59.750	  2.0565e+03
      60.000	  3.1533e+03
      60.250	  3.6564e+03
      60.500	  3.0539e+03
      60.750	  2.8885e+03
      61.000	  3.4425e+03
      61.250	  3.7175e+03
      61.500	  3.4929e+03
      61.750	  3.3607e+03
      62.000	  3.7064e+03
      62.250	  4.1841e+03
      62.500	  4.2439e+03
      62.750	  3.4091e+03
      63.000	  2.2551e+03
      63.250	  2.1620e+03
      63.500	  2.6217e+03
      63.750	  2.5061e+03
      64.000	  2.7360e+03
      64.250	  3.7318e+03
      64.500	  4.3286e+03
      64.750	  4.4266e+03
      65.000	  4.3446e+03
      65.250	  3.7343e+03
      65.500	  2.9970e+03
      65.750	  2.6995e+03
      66.000	  2.3650e+03
      66.250	  1.2921e+03
      66.500	  1.0393e+01
      66.750	 -2.2923e+02
      67.000	  3.9183e+02
      67.250	  9.1133e+02
      67.500	  1.0264e+03
      67.750	  5.0664e+02
      68.000	 -3.4154e+02
      68.250	 -6.8267e+02
      68.500	 -6.5273e+02
      68.750	  4.5330e+01
      69.000	  2.2596e+03
      69.250	  3.7742e+03
      69.500	  2.1085e+03
      69.750	 -5.9267e+02
      70.000	 -1.2108e+03
      70.250	 -3.1442e+02
      70.500	 -2.0573e+02
      70.750	 -7.5967e+02
      71.000	 -6.2104e+02
      71.250	 -2.4354e+02
      71.500	  2.6271e+02
      71.750	  1.8625e+03
      72.000	  3.4145e+03
      72.250	  3.2628e+03
      72.500	  2.3968e+03
      72.750	  1.9551e+03
      73.000	  2.0787e+03
      73.250	  3.3288e+03
      73.500	  5.0518e+03
      73.750	  5.4716e+03
      74.000	  4.0966e+03
      74.250	  1.9933e+03
      74.500	  9.9496e+02
      74.750	  1.5353e+03
      75.000	  2.2463e+03
      75.250	  3.0350e+03
      75.500	  4.3681e+03
      75.750	  5.3140e+03
      76.000	  5.0263e+03
      76.250	  3.6749e+03
      76.500	  2.6494e+03
      76.750	  3.0816e+03
      77.000	  4.1733e+03
      77.250	  5.1359e+03
      77.500	  5.8268e+03
      77.750	  5.2362e+03
      78.000	  3.2258e+03
      78.250	  2.1320e+03
      78.500	  3.4511e+03
      78.750	  5.2793e+03
      79.000	  5.3180e+03
      79.250	  3.8792e+03
      79.500	  2.7223e+03
      79.750	  2.6609e+03
      80.000	  2.8666e+03
      80.250	  2.7191e+03
      80.500	  2.9487e+03
      80.750	  4.0088e+03
      81.000	  5.1090e+03
      81.250	  4.9923e+03
      81.500	  3.4515e+03
      81.750	  1.7994e+03
      82.000	  1.3483e+03
      82.250	  2.2311e+03
      82.500	  3.7465e+03
      82.750	  5.0081e+03
      83.000	  5.1993e+03
      83.250	  4.5594e+03
      83.500	  4.2767e+03
      83.750	  4.7399e+03
      84.000	  5.4878e+03
      84.250	  5.9206e+03
      84.500	  5.8323e+03
      84.750	  5.9411e+03
      85.000	  6.7181e+03
      85.250	  7.4520e+03
      85.500	  7.3955e+03
      85.750	  6.5847e+03
      86.000	  5.5754e+03
      86.250	  4.7314e+03
      86.500	  4.2750e+03
      86.750	  4.8018e+03
      87.000	  5.4991e+03
      87.250	  4.6080e+03
      87.500	  3.2615e+03
      87.750	  3.7045e+03
      88.000	  5.2948e+03
      88.250	  6.4255e+03
      88.500	  7.2600e+03
      88.750	  8.3008e+03
      89.000	  8.7200e+03
      89.250	  8.3538e+03
      89.500	  8.0492e+03
      89.750	  7.2319e+03
      90.000	  5.7834e+03
      90.250	  5.2057e+03
      90.500	  5.4210e+03
      90.750	  5.1574e+03
      91.000	  4.2773e+03
      91.250	  3.4920e+03
      91.500	  3.6248e+03
      91.750	  4.5309e+03
      92.000	  5.6855e+03
      92.250	  7.1945e+03
      92.500	  7.8576e+03
      92.750	  6.7128e+03
      93.000	  5.8361e+03
      93.250	  6.3431e+03
      93.500	  6.6089e+03
      93.750	  6.2149e+03
      94.000	  5.4730e+03
      94.250	  4.0766e+03
      94.500	  3.2866e+03
      94.750	  4.3041e+03
      95.000	  5.6867e+03
      95.250	  6.3162e+03
      95.500	  7.0486e+03
      95.750	  7.7146e+03
      96.000	  7.5638e+03
      96.250	  7.2497e+03
      96.500	  6.9273e+03
      96.750	  6.4158e+03
      97.000	  6.5213e+03
      97.250	  7.0881e+03
      97.500	  7.2879e+03
      97.750	  7.3148e+03
      98.000	  7.0490e+03
      98.250	  6.3643e+03
      98.500	  6.1543e+03
      98.750	  6.3943e+03
      99.000	  6.4953e+03
      99.250	  7.0352e+03
      99.500	  7.8927e+03
      99.750	  7.9220e+03
     100.000	  7.5853e+03
     100.250	  7.9917e+03
     100.500	  8.5450e+03
     100.750	  8.3482e+03
     101.000	  7.6805e+03
     101.250	  6.9757e+03
     101.500	  6.1750e+03
     101.750	  5.1172e+03
     102.000	  3.8210e+03
     102.250	  2.7658e+03
     102.500	  2.8085e+03
     102.750	  4.3025e+03
     103.000	  6.5495e+03
     103.250	  8.4431e+03
     103.500	  9.2443e+03
     103.750	  8.6672e+03
     104.000	  7.3673e+03
     104.250	  6.8216e+03
     104.500	  6.8792e+03
     104.750	  6.0967e+03
     105.000	  5.1861e+03
     105.250	  5.3088e+03
     105.500	  5.5844e+03
     105.750	  5.7282e+03
     106.000	  5.8960e+03
     106.250	  5.0608e+03
     106.500	  3.8725e+03
     106.750	  4.3706e+03
     107.000	  6.2543e+03
     107.250	  7.4433e+03
     107.500	  7.1913e+03
     107.750	  6.9680e+03
     108.000	  7.2135e+03
     108.250	  6.6256e+03
     108.500	  6.1389e+03
     108.750	  7.0521e+03
     109.000	  7.3418e+03
     109.250	  5.8301e+03
     109.500	  4.4384e+03
     109.750	  3.9970e+03
     110.000	  4.1543e+03
     110.250	  5.0596e+03
     110.500	  6.1494e+03
     110.750	  6.9348e+03
     111.000	  7.5396e+03
     111.250	  8.0907e+03
     111.500	  8.6554e+03
     111.750	  8.4590e+03
     112.000	  7.1936e+03
     112.250	  6.0633e+03
     112.500	  5.8295e+03
     112.750	  5.8978e+03
     113.000	  4.9568e+03
     113.250	  3.5256e+03
     113.500	  3.8391e+03
     113.750	  5.1152e+03
     114.000	  5.0330e+03
     114.250	  4.2116e+03
     114.500	  4.3546e+03
     114.750	  5.7394e+03
     115.000	  7.1551e+03
     115.250	  7.3035e+03
     115.500	  6.7254e+03
     115.750	  6.4413e+03
     116.000	  6.4174e+03
     116.250	  6.2920e+03
     116.500	  5.7611e+03
     116.750	  5.0023e+03
     117.000	  4.1860e+03
     117.250	  3.4049e+03
     117.500	  3.4970e+03
     117.750	  4.4872e+03
     118.000	  5.0390e+03
     118.250	  4.9560e+03
     118.500	  4.8623e+03
     118.750	  4.4376e+03
     119.000	  4.0191e+03
     119.250	  4.1258e+03
     119.500	  3.8663e+03
     119.750	  3.0796e+03
     120.000	  2.8368e+03
     120.250	  3.4881e+03
     120.500	  4.0456e+03
     120.750	  3.5405e+03
     121.000	  2.6773e+03
     121.250	  2.7564e+03
     121.500	  3.8377e+03
     121.750	  5.2854e+03
     122.000	  6.6845e+03
     122.250	  7.5996e+03
     122.500	  7.5531e+03
     122.750	  6.8466e+03
     123.000	  6.0668e+03
     123.250	  5.1931e+03
     123.500	  4.8263e+03
     123.750	  5.3251e+03
     124.000	  5.5336e+03
     124.250	  5.3341e+03
     124.500	  5.7554e+03
     124.750	  6.7951e+03
     125.000	  7.8008e+03
     125.250	  8.1070e+03
     125.500	  7.2818e+03
     125.750	  6.4490e+03
     126.000	  6.9815e+03
     126.250	  7.5071e+03
     126.500	  7.0190e+03
     126.750	  7.1098e+03
     127.000	  7.9556e+03
     127.250	  8.3006e+03
     127.500	  7.8781e+03
     127.750	  6.9205e+03
     128.000	  5.7647e+03
     128.250	  4.5538e+03
     128.500	  3.6565e+03
     128.750	  3.8832e+03
     129.000	  4.6741e+03
     129.250	  5.2439e+03
     129.500	  6.5614e+03
     129.750	  8.6152e+03
     130.000	  9.6348e+03
     130.250	  8.8186e+03
     130.500	  7.1617e+03
     130.750	  6.6164e+03
     131.000	  7.2201e+03
     131.250	  7.0171e+03
     131.500	  6.5040e+03
     131.750	  7.2355e+03
     132.000	  8.0094e+03
     132.250	  7.1453e+03
     132.500	  4.9847e+03
     132.750	  3.3740e+03
     133.000	  3.1936e+03
     133.250	  3.6158e+03
     133.500	  4.8453e+03
     133.750	  6.7569e+03
     134.000	  7.7996e+03
     134.250	  8.3834e+03
     134.500	  9.1087e+03
     134.750	  8.8324e+03
     135.000	  7.5469e+03
     135.250	  6.2558e+03
     135.500	  5.7151e+03
     135.750	  6.5843e+03
     136.000	  8.3154e+03
     136.250	  9.3396e+03
     136.500	  9.1802e+03
     136.750	  8.6561e+03
     137.000	  8.5881e+03
     137.250	  9.2738e+03
     137.500	  1.0318e+04
     137.750	  1.0841e+04
     138.000	  1.0203e+04
     138.250	  8.8423e+03
     138.500	  8.0023e+03
     138.750	  8.0598e+03
     139.000	  8.7290e+03
     139.250	  9.7266e+03
     139.500	  9.8795e+03
     139.750	  8.7814e+03
     140.000	  7.5263e+03
     140.250	  6.3015e+03
     140.500	  5.5043e+03
     140.750	  6.3343e+03
     141.000	  7.9616e+03
     141.250	  8.6451e+03
     141.500	  8.2344e+03
     141.750	  7.6093e+03
     142.000	  7.8579e+03
     142.250	  8.7928e+03
     142.500	  8.9214e+03
     142.750	  8.2691e+03
     143.000	  8.2030e+03
     143.250	  8.8177e+03
     143.500	  9.1205e+03
     143.750	  9.1513e+03
     144.000	  9.5800e+03
     144.250	  9.9456e+03
     144.500	  9.9262e+03
     144.750	  9.7608e+03
     145.000	  9.1233e+03
     145.250	  8.8160e+03
     145.500	  9.9861e+03
     145.750	  1.1509e+04
     146.000	  1.1635e+04
     146.250	  1.0312e+04
     146.500	  9.5616e+03
     146.750	  1.0328e+04
     147.000	  1.0436e+04
     147.250	  9.3401e+03
     147.500	  9.1295e+03
     147.750	  9.9162e+03
     148.000	  1.0166e+04
     148.250	  9.2257e+03
     148.500	  7.2881e+03
     148.750	  5.7780e+03
     149.000	  6.7046e+03
     149.250	  9.7583e+03
     149.500	  1.2565e+04
     149.750	  1.3517e+04
     150.000	  1.2544e+04
     150.250	  1.1179e+04
     150.500	  1.1213e+04
     150.750	  1.2522e+04
     151.000	  1.3966e+04
     151.250	  1.4460e+04
     151.500	  1.3804e+04
     151.750	  1.3020e+04
     152.000	  1.2268e+04
     152.250	  1.1553e+04
     152.500	  1.1330e+04
     152.750	  1.1035e+04
     153.000	  1.1007e+04
     153.250	  1.2230e+04
     153.500	  1.3598e+04
     153.750	  1.3865e+04
     154.000	  1.3555e+04
     154.250	  1.3113e+04
     154.500	  1.2369e+04
     154.750	  1.1495e+04
     155.000	  1.0809e+04
     155.250	  1.0683e+04
     155.500	  1.1409e+04
     155.750	  1.2187e+04
     156.000	  1.1964e+04
     156.250	  1.1143e+04
     156.500	  1.0663e+04
     156.750	  1.1150e+04
     157.000	  1.2292e+04
     157.250	  1.2443e+04
     157.500	  1.1357e+04
     157.750	  1.0726e+04
     158.000	  1.1232e+04
     158.250	  1.1943e+04
     158.500	  1.1860e+04
     158.750	  1.1269e+04
     159.000	  1.1088e+04
     159.250	  1.1102e+04
     159.500	  1.1074e+04
     159.750	  1.1624e+04
     160.000	  1.2394e+04
     160.250	  1.2566e+04
     160.500	  1.2031e+04
     160.750	  1.1282e+04
     161.000	  1.1376e+04
     161.250	  1.1906e+04
     161.500	  1.1848e+04
     161.750	  1.2393e+04
     162.000	  1.3951e+04
     162.250	  1.4690e+04
     162.500	  1.4257e+04
     162.750	  1.3425e+04
     163.000	  1.2220e+04
     163.250	  1.1030e+04
     163.500	  1.0722e+04
     163.750	  1.1271e+04
     164.000	  1.1552e+04
     164.250	  1.1435e+04
     164.500	  1.1647e+04
     164.750	  1.1856e+04
     165.000	  1.1656e+04
     165.250	  1.1591e+04
     165.500	  1.2305e+04
     165.750	  1.2670e+04
     166.000	  1.1528e+04
     166.250	  1.0831e+04
     166.500	  1.1718e+04
     166.750	  1.2189e+04
     167.000	  1.1786e+04
     167.250	  1.2106e+04
     167.500	  1.3129e+04
     167.750	  1.3485e+04
     168.000	  1.2462e+04
     168.250	  1.0611e+04
     168.500	  9.2175e+03
     168.750	  9.0323e+03
     169.000	  9.8034e+03
     169.250	  1.0197e+04
     169.500	  9.5120e+03
     169.750	  8.6310e+03
     170.000	  8.0796e+03
     170.250	  8.2468e+03
     170.500	  9.4693e+03
     170.750	  1.0573e+04
     171.000	  1.0316e+04
     171.250	  9.1916e+03
     171.500	  8.3599e+03
     171.750	  8.0795e+03
     172.000	  7.6875e+03
     172.250	  7.0295e+03
     172.500	  7.0418e+03
     172.750	  7.9474e+03
     173.000	  8.6874e+03
     173.250	  8.8596e+03
     173.500	  9.0646e+03
     173.750	  9.2090e+03
     174.000	  8.7206e+03
     174.250	  8.4233e+03
     174.500	  8.8407e+03
     174.750	  8.0780e+03
     175.000	  5.4716e+03
     175.250	  3.6753e+03
     175.500	  4.5928e+03
     175.750	  6.9884e+03
     176.000	  8.4410e+03
     176.250	  7.8025e+03
     176.500	  6.1512e+03
     176.750	  5.3368e+03
     177.000	  5.5664e+03
     177.250	  5.7740e+03
     177.500	  5.7142e+03
     177.750	  5.6355e+03
     178.000	  5.2900e+03
     178.250	  4.8011e+03
     178.500	  4.7596e+03
     178.750	  5.4011e+03
     179.000	  6.3065e+03
     179.250	  6.4842e+03
     179.500	  5.9051e+03
     179.750	  5.1940e+03
     180.000	  3.7621e+03
     180.250	  2.3535e+03
     180.500	  2.8896e+03
     180.750	  4.0553e+03
     181.000	  3.9906e+03
     181.250	  3.4681e+03
     181.500	  3.1080e+03
     181.750	  2.9848e+03
     182.000	  3.1717e+03
     182.250	  3.1251e+03
     182.500	  3.2055e+03
     182.750	  3.9164e+03
     183.000	  3.9085e+03
     183.250	  2.7520e+03
     183.500	  2.1433e+03
     183.750	  2.6575e+03
     184.000	  3.7865e+03
     184.250	  5.0083e+03
     184.500	  5.4444e+03
     184.750	  5.6218e+03
     185.000	  6.2644e+03
     185.250	  6.4306e+03
     185.500	  6.4573e+03
     185.750	  7.2949e+03
     186.000	  7.7409e+03
     186.250	  6.9465e+03
     186.500	  5.9669e+03
     186.750	  5.6736e+03
     187.000	  5.8893e+03
     187.250	  6.4755e+03
     187.500	  7.5250e+03
     187.750	  8.5489e+03
     188.000	  8.8851e+03
     188.250	  8.7147e+03
     188.500	  8.7751e+03
     188.750	  8.8406e+03
     189.000	  7.9861e+03
     189.250	  6.3297e+03
     189.500	  4.9772e+03
     189.750	  4.7321e+03
     190.000	  5.3575e+03
     190.250	  6.1096e+03
     190.500	  6.3596e+03
     190.750	  6.1765e+03
     191.000	  6.8886e+03
     191.250	  8.9903e+03
     191.500	  1.0444e+04
